#wavelength 2.428257
#field  0.000 0.000 0.001
#   ttheta     IntUP    sIntUP   IntDOWN  sIntDOWN
  14.0000      340.6       18.46         340.6       18.46    
  14.1000      336.8       18.35         336.8       18.35    
  14.2000      341.4       18.48         341.4       18.48    
  14.3000      343.8       18.54         343.8       18.54    
  14.4000      335.5       18.32         335.5       18.32    
  14.5000      336.7       18.35         336.7       18.35    
  14.6000      338.5       18.40         338.5       18.40    
  14.7000      333.0       18.25         333.0       18.25    
  14.8000      337.6       18.37         337.6       18.37    
  14.9000      341.8       18.49         341.8       18.49    
  15.0000      340.3       18.45         340.3       18.45    
  15.1000      332.9       18.25         332.9       18.25    
  15.2000      343.4       18.53         343.4       18.53    
  15.3000      341.5       18.48         341.5       18.48    
  15.4000      340.5       18.45         340.5       18.45    
  15.5000      344.6       18.56         344.6       18.56    
  15.6000      344.2       18.55         344.2       18.55    
  15.7000      341.3       18.47         341.3       18.47    
  15.8000      341.3       18.47         341.3       18.47    
  15.9000      339.2       18.42         339.2       18.42    
  16.0000      331.9       18.22         331.9       18.22    
  16.1000      333.1       18.25         333.1       18.25    
  16.2000      343.2       18.53         343.2       18.53    
  16.3000      341.9       18.49         341.9       18.49    
  16.4000      335.8       18.32         335.8       18.32    
  16.5000      338.5       18.40         338.5       18.40    
  16.6000      354.3       18.82         354.3       18.82    
  16.7000      345.6       18.59         345.6       18.59    
  16.8000      344.8       18.57         344.8       18.57    
  16.9000      349.8       18.70         349.8       18.70    
  17.0000      341.4       18.48         341.4       18.48    
  17.1000      346.7       18.62         346.7       18.62    
  17.2000      332.5       18.23         332.5       18.23    
  17.3000      339.6       18.43         339.6       18.43    
  17.4000      334.9       18.30         334.9       18.30    
  17.5000      340.8       18.46         340.8       18.46    
  17.6000      341.4       18.48         341.4       18.48    
  17.7000      334.2       18.28         334.2       18.28    
  17.8000      334.4       18.29         334.4       18.29    
  17.9000      345.6       18.59         345.6       18.59    
  18.0000      330.5       18.18         330.5       18.18    
  18.1000      328.4       18.12         328.4       18.12    
  18.2000      337.0       18.36         337.0       18.36    
  18.3000      337.1       18.36         337.1       18.36    
  18.4000      336.7       18.35         336.7       18.35    
  18.5000      340.3       18.45         340.3       18.45    
  18.6000      337.7       18.38         337.7       18.38    
  18.7000      353.8       18.81         353.8       18.81    
  18.8000      349.6       18.70         349.6       18.70    
  18.9000      394.0       19.85         394.0       19.85    
  19.0000      526.8       22.95         526.8       22.95    
  19.1000      732.9       27.07         732.9       27.07    
  19.2000      868.1       29.46         868.1       29.46    
  19.3000      832.3       28.85         832.3       28.85    
  19.4000      668.3       25.85         668.3       25.85    
  19.5000      465.9       21.58         465.9       21.58    
  19.6000      371.9       19.28         371.9       19.28    
  19.7000      345.7       18.59         345.7       18.59    
  19.8000      333.8       18.27         333.8       18.27    
  19.9000      339.6       18.43         339.6       18.43    
  20.0000      345.9       18.60         345.9       18.60    
  20.1000      348.2       18.66         348.2       18.66    
  20.2000      351.4       18.75         351.4       18.75    
  20.3000      338.5       18.40         338.5       18.40    
  20.4000      334.6       18.29         334.6       18.29    
  20.5000      328.3       18.12         328.3       18.12    
  20.6000      329.6       18.15         329.6       18.15    
  20.7000      336.6       18.35         336.6       18.35    
  20.8000      331.4       18.20         331.4       18.20    
  20.9000      326.1       18.06         326.1       18.06    
  21.0000      336.2       18.34         336.2       18.34    
  21.1000      327.9       18.11         327.9       18.11    
  21.2000      331.9       18.22         331.9       18.22    
  21.3000      328.5       18.12         328.5       18.12    
  21.4000      329.1       18.14         329.1       18.14    
  21.5000      334.7       18.29         334.7       18.29    
  21.6000      324.1       18.00         324.1       18.00    
  21.7000      322.2       17.95         322.2       17.95    
  21.8000      331.7       18.21         331.7       18.21    
  21.9000      330.0       18.17         330.0       18.17    
  22.0000      328.9       18.14         328.9       18.14    
  22.1000      334.2       18.28         334.2       18.28    
  22.2000      335.1       18.31         335.1       18.31    
  22.3000      345.8       18.60         345.8       18.60    
  22.4000      340.4       18.45         340.4       18.45    
  22.5000      342.1       18.50         342.1       18.50    
  22.6000      335.9       18.33         335.9       18.33    
  22.7000      328.7       18.13         328.7       18.13    
  22.8000      332.2       18.23         332.2       18.23    
  22.9000      333.6       18.26         333.6       18.26    
  23.0000      334.8       18.30         334.8       18.30    
  23.1000      330.0       18.17         330.0       18.17    
  23.2000      336.3       18.34         336.3       18.34    
  23.3000      332.6       18.24         332.6       18.24    
  23.4000      336.4       18.34         336.4       18.34    
  23.5000      338.6       18.40         338.6       18.40    
  23.6000      327.8       18.11         327.8       18.11    
  23.7000      334.1       18.28         334.1       18.28    
  23.8000      338.6       18.40         338.6       18.40    
  23.9000      324.2       18.01         324.2       18.01    
  24.0000      330.1       18.17         330.1       18.17    
  24.1000      330.5       18.18         330.5       18.18    
  24.2000      338.2       18.39         338.2       18.39    
  24.3000      328.4       18.12         328.4       18.12    
  24.4000      329.3       18.15         329.3       18.15    
  24.5000      326.4       18.07         326.4       18.07    
  24.6000      339.1       18.41         339.1       18.41    
  24.7000      322.0       17.94         322.0       17.94    
  24.8000      326.0       18.06         326.0       18.06    
  24.9000      332.8       18.24         332.8       18.24    
  25.0000      330.3       18.17         330.3       18.17    
  25.1000      320.6       17.91         320.6       17.91    
  25.2000      329.7       18.16         329.7       18.16    
  25.3000      331.7       18.21         331.7       18.21    
  25.4000      329.9       18.16         329.9       18.16    
  25.5000      332.8       18.24         332.8       18.24    
  25.6000      324.3       18.01         324.3       18.01    
  25.7000      334.5       18.29         334.5       18.29    
  25.8000      328.5       18.12         328.5       18.12    
  25.9000      332.2       18.23         332.2       18.23    
  26.0000      346.0       18.60         346.0       18.60    
  26.1000      338.4       18.40         338.4       18.40    
  26.2000      332.2       18.23         332.2       18.23    
  26.3000      329.5       18.15         329.5       18.15    
  26.4000      342.3       18.50         342.3       18.50    
  26.5000      342.3       18.50         342.3       18.50    
  26.6000      346.3       18.61         346.3       18.61    
  26.7000      354.3       18.82         354.3       18.82    
  26.8000      353.9       18.81         353.9       18.81    
  26.9000      353.9       18.81         353.9       18.81    
  27.0000      434.4       20.84         434.4       20.84    
  27.1000      807.7       28.42         807.7       28.42    
  27.2000     1818.0       42.64        1818.0       42.64    
  27.3000     2525.9       50.26        2525.9       50.26    
  27.4000     2649.7       51.48        2649.7       51.48    
  27.5000     2022.7       44.97        2022.7       44.97    
  27.6000     1181.1       34.37        1181.1       34.37    
  27.7000      587.9       24.25         587.9       24.25    
  27.8000      377.6       19.43         377.6       19.43    
  27.9000      355.5       18.85         355.5       18.85    
  28.0000      348.7       18.67         348.7       18.67    
  28.1000      337.9       18.38         337.9       18.38    
  28.2000      339.9       18.44         339.9       18.44    
  28.3000      344.5       18.56         344.5       18.56    
  28.4000      335.7       18.32         335.7       18.32    
  28.5000      333.3       18.26         333.3       18.26    
  28.6000      337.2       18.36         337.2       18.36    
  28.7000      332.9       18.25         332.9       18.25    
  28.8000      328.6       18.13         328.6       18.13    
  28.9000      332.7       18.24         332.7       18.24    
  29.0000      329.4       18.15         329.4       18.15    
  29.1000      324.8       18.02         324.8       18.02    
  29.2000      332.2       18.23         332.2       18.23    
  29.3000      328.7       18.13         328.7       18.13    
  29.4000      325.8       18.05         325.8       18.05    
  29.5000      324.0       18.00         324.0       18.00    
  29.6000      323.6       17.99         323.6       17.99    
  29.7000      327.5       18.10         327.5       18.10    
  29.8000      329.0       18.14         329.0       18.14    
  29.9000      310.1       17.61         310.1       17.61    
  30.0000      317.6       17.82         317.6       17.82    
  30.1000      327.3       18.09         327.3       18.09    
  30.2000      314.9       17.75         314.9       17.75    
  30.3000      318.8       17.85         318.8       17.85    
  30.4000      325.9       18.05         325.9       18.05    
  30.5000      321.0       17.92         321.0       17.92    
  30.6000      342.7       18.51         342.7       18.51    
  30.7000      334.9       18.30         334.9       18.30    
  30.8000      329.8       18.16         329.8       18.16    
  30.9000      326.7       18.07         326.7       18.07    
  31.0000      331.1       18.20         331.1       18.20    
  31.1000      319.4       17.87         319.4       17.87    
  31.2000      324.6       18.02         324.6       18.02    
  31.3000      325.4       18.04         325.4       18.04    
  31.4000      320.6       17.91         320.6       17.91    
  31.5000      329.8       18.16         329.8       18.16    
  31.6000      322.6       17.96         322.6       17.96    
  31.7000      324.4       18.01         324.4       18.01    
  31.8000      326.3       18.06         326.3       18.06    
  31.9000      331.9       18.22         331.9       18.22    
  32.0000      327.1       18.09         327.1       18.09    
  32.1000      337.2       18.36         337.2       18.36    
  32.2000      341.5       18.48         341.5       18.48    
  32.3000      331.9       18.22         331.9       18.22    
  32.4000      334.8       18.30         334.8       18.30    
  32.5000      335.9       18.33         335.9       18.33    
  32.6000      339.4       18.42         339.4       18.42    
  32.7000      337.9       18.38         337.9       18.38    
  32.8000      340.4       18.45         340.4       18.45    
  32.9000      342.9       18.52         342.9       18.52    
  33.0000      347.9       18.65         347.9       18.65    
  33.1000      363.1       19.06         363.1       19.06    
  33.2000      361.1       19.00         361.1       19.00    
  33.3000      392.8       19.82         392.8       19.82    
  33.4000      731.2       27.04         731.2       27.04    
  33.5000     1783.0       42.23        1783.0       42.23    
  33.6000     3013.8       54.90        3013.8       54.90    
  33.7000     3477.5       58.97        3477.5       58.97    
  33.8000     3034.3       55.08        3034.3       55.08    
  33.9000     1998.3       44.70        1998.3       44.70    
  34.0000      967.5       31.10         967.5       31.10    
  34.1000      458.0       21.40         458.0       21.40    
  34.2000      357.5       18.91         357.5       18.91    
  34.3000      354.2       18.82         354.2       18.82    
  34.4000      351.5       18.75         351.5       18.75    
  34.5000      345.0       18.57         345.0       18.57    
  34.6000      344.7       18.57         344.7       18.57    
  34.7000      335.8       18.32         335.8       18.32    
  34.8000      340.7       18.46         340.7       18.46    
  34.9000      336.6       18.35         336.6       18.35    
  35.0000      330.5       18.18         330.5       18.18    
  35.1000      340.0       18.44         340.0       18.44    
  35.2000      327.8       18.11         327.8       18.11    
  35.3000      331.6       18.21         331.6       18.21    
  35.4000      328.5       18.12         328.5       18.12    
  35.5000      321.6       17.93         321.6       17.93    
  35.6000      316.6       17.79         316.6       17.79    
  35.7000      316.0       17.78         316.0       17.78    
  35.8000      335.6       18.32         335.6       18.32    
  35.9000      328.1       18.11         328.1       18.11    
  36.0000      327.5       18.10         327.5       18.10    
  36.1000      324.0       18.00         324.0       18.00    
  36.2000      319.6       17.88         319.6       17.88    
  36.3000      323.2       17.98         323.2       17.98    
  36.4000      314.5       17.73         314.5       17.73    
  36.5000      320.3       17.90         320.3       17.90    
  36.6000      333.1       18.25         333.1       18.25    
  36.7000      328.7       18.13         328.7       18.13    
  36.8000      324.5       18.01         324.5       18.01    
  36.9000      334.8       18.30         334.8       18.30    
  37.0000      322.8       17.97         322.8       17.97    
  37.1000      336.6       18.35         336.6       18.35    
  37.2000      328.6       18.13         328.6       18.13    
  37.3000      330.0       18.17         330.0       18.17    
  37.4000      326.1       18.06         326.1       18.06    
  37.5000      335.3       18.31         335.3       18.31    
  37.6000      341.8       18.49         341.8       18.49    
  37.7000      349.1       18.68         349.1       18.68    
  37.8000      355.5       18.85         355.5       18.85    
  37.9000      344.3       18.56         344.3       18.56    
  38.0000      341.1       18.47         341.1       18.47    
  38.1000      354.3       18.82         354.3       18.82    
  38.2000      362.0       19.03         362.0       19.03    
  38.3000      364.3       19.09         364.3       19.09    
  38.4000      372.1       19.29         372.1       19.29    
  38.5000      380.7       19.51         380.7       19.51    
  38.6000      385.6       19.64         385.6       19.64    
  38.7000      446.3       21.13         446.3       21.13    
  38.8000      857.8       29.29         857.8       29.29    
  38.9000     2274.3       47.69        2274.3       47.69    
  39.0000     4252.2       65.21        4252.2       65.21    
  39.1000     5520.4       74.30        5520.4       74.30    
  39.2000     5145.9       71.73        5145.9       71.73    
  39.3000     3560.8       59.67        3560.8       59.67    
  39.4000     1778.9       42.18        1778.9       42.18    
  39.5000      695.9       26.38         695.9       26.38    
  39.6000      413.5       20.33         413.5       20.33    
  39.7000      387.8       19.69         387.8       19.69    
  39.8000      385.5       19.63         385.5       19.63    
  39.9000      369.7       19.23         369.7       19.23    
  40.0000      360.2       18.98         360.2       18.98    
  40.1000      355.5       18.85         355.5       18.85    
  40.2000      348.1       18.66         348.1       18.66    
  40.3000      350.4       18.72         350.4       18.72    
  40.4000      337.4       18.37         337.4       18.37    
  40.5000      338.5       18.40         338.5       18.40    
  40.6000      339.0       18.41         339.0       18.41    
  40.7000      330.7       18.19         330.7       18.19    
  40.8000      329.3       18.15         329.3       18.15    
  40.9000      330.0       18.17         330.0       18.17    
  41.0000      323.5       17.99         323.5       17.99    
  41.1000      329.5       18.15         329.5       18.15    
  41.2000      324.0       18.00         324.0       18.00    
  41.3000      322.5       17.96         322.5       17.96    
  41.4000      324.2       18.01         324.2       18.01    
  41.5000      325.7       18.05         325.7       18.05    
  41.6000      341.2       18.47         341.2       18.47    
  41.7000      326.5       18.07         326.5       18.07    
  41.8000      323.6       17.99         323.6       17.99    
  41.9000      315.0       17.75         315.0       17.75    
  42.0000      323.8       17.99         323.8       17.99    
  42.1000      320.8       17.91         320.8       17.91    
  42.2000      326.8       18.08         326.8       18.08    
  42.3000      313.8       17.71         313.8       17.71    
  42.4000      332.3       18.23         332.3       18.23    
  42.5000      317.9       17.83         317.9       17.83    
  42.6000      321.0       17.92         321.0       17.92    
  42.7000      322.5       17.96         322.5       17.96    
  42.8000      333.4       18.26         333.4       18.26    
  42.9000      324.3       18.01         324.3       18.01    
  43.0000      322.6       17.96         322.6       17.96    
  43.1000      321.9       17.94         321.9       17.94    
  43.2000      334.6       18.29         334.6       18.29    
  43.3000      325.5       18.04         325.5       18.04    
  43.4000      330.5       18.18         330.5       18.18    
  43.5000      332.0       18.22         332.0       18.22    
  43.6000      376.0       19.39         376.0       19.39    
  43.7000      519.7       22.80         519.7       22.80    
  43.8000      798.8       28.26         798.8       28.26    
  43.9000     1073.5       32.76        1073.5       32.76    
  44.0000     1180.1       34.35        1180.1       34.35    
  44.1000     1011.0       31.80        1011.0       31.80    
  44.2000      714.4       26.73         714.4       26.73    
  44.3000      475.4       21.80         475.4       21.80    
  44.4000      345.9       18.60         345.9       18.60    
  44.5000      338.6       18.40         338.6       18.40    
  44.6000      324.2       18.01         324.2       18.01    
  44.7000      334.2       18.28         334.2       18.28    
  44.8000      334.7       18.29         334.7       18.29    
  44.9000      328.8       18.13         328.8       18.13    
  45.0000      343.4       18.53         343.4       18.53    
  45.1000      363.6       19.07         363.6       19.07    
  45.2000      383.6       19.59         383.6       19.59    
  45.3000      385.3       19.63         385.3       19.63    
  45.4000      366.5       19.14         366.5       19.14    
