#wavelength 1.4
#field 0. 0.  1.0
#   ttheta     IntUP    sIntUP   IntDOWN  sIntDOWN
 5.50    2097174.00    1448.16    2094826.00    1447.35
 6.06    1181741.00    1087.08    1180069.00    1086.31
 6.48    876895.00    936.43    875980.00    935.94
 6.83    791406.00    889.61    789871.00    888.75
 7.13    711426.00    843.46    712159.00    843.90
 7.39    664782.00    815.34    665260.00    815.63
 7.63    634493.00    796.55    633986.00    796.23
 7.85    601882.00    775.81    601558.00    775.60
 8.05    609273.00    780.56    610043.00    781.05
 8.24    585683.00    765.30    587194.00    766.29
 8.43    585639.00    765.27    585811.00    765.38
 8.61    578102.00    760.33    576818.00    759.49
 8.77    596821.00    772.54    596254.00    772.17
 8.94    587115.00    766.23    586497.00    765.83
 9.08    599154.00    774.05    598574.00    773.68
 9.24    632491.00    795.29    630254.00    793.89
 9.39    625399.00    790.82    621993.00    788.67
 9.53    664664.00    815.27    660550.00    812.74
 9.67    660222.00    812.54    653344.00    808.30
 9.80    663246.00    814.40    655715.00    809.76
 9.93    669175.00    818.03    665125.00    815.55
 10.07   660803.00    812.90    656056.00    809.97
 10.19   642796.00    801.75    635500.00    797.18
 10.32   633365.00    795.84    630324.00    793.93
 10.44   607559.00    779.46    604735.00    777.65
 10.55   592234.00    769.57    589446.00    767.75
 10.68   577657.00    760.04    575729.00    758.77
 10.79   564660.00    751.44    562812.00    750.21
 10.90   555782.00    745.51    552557.00    743.34
 11.01   551689.00    742.76    553372.00    743.89
 11.12   556160.00    745.76    555488.00    745.31
 11.23   566322.00    752.54    564518.00    751.34
 11.34   548248.00    740.44    546427.00    739.21
 11.44   564780.00    751.52    563165.00    750.44
 11.54   559811.00    748.21    558786.00    747.52
 11.64   556192.00    745.78    553099.00    743.71
 11.75   555062.00    745.02    553471.00    743.96
 11.85   555684.00    745.44    555018.00    745.00
 11.94   556648.00    746.09    558131.00    747.08
 12.04   554682.00    744.77    554117.00    744.39
 12.14   557996.00    746.99    557132.00    746.41
 12.23   558135.00    747.08    558867.00    747.57
 12.32   555650.00    745.42    555380.00    745.24
 12.41   557811.00    746.87    557255.00    746.50
 12.50   557369.00    746.57    557353.00    746.56
 12.60   555859.00    745.56    554337.00    744.54
 12.69   557828.00    746.88    558404.00    747.26
 12.78   567940.00    753.62    569136.00    754.41
 12.86   558039.00    747.02    559119.00    747.74
 12.95   559500.00    748.00    558812.00    747.54
 13.04   557260.00    746.50    556053.00    745.69
 13.12   566967.00    752.97    568001.00    753.66
 13.20   557537.00    746.68    557260.00    746.50
 13.29   555418.00    745.26    555791.00    745.51
 13.37   563480.00    750.65    563311.00    750.54
 13.46   563211.00    750.47    564441.00    751.29
 13.54   557970.00    746.97    558716.00    747.47
 13.62   559700.00    748.13    560808.00    748.87
 13.70   555705.00    745.46    556731.00    746.14
 13.78   556555.00    746.03    557138.00    746.42
 13.86   561301.00    749.20    562076.00    749.72
 13.94   572178.00    756.42    573728.00    757.45
 14.01   554657.00    744.75    556010.00    745.66
 14.09   561589.00    749.39    562062.00    749.71
 14.17   572789.00    756.83    575580.00    758.67
 14.24   566414.00    752.60    566116.00    752.41
 14.32   571242.00    755.81    573255.00    757.14
 14.39   565900.00    752.26    567534.00    753.35
 14.47   585269.00    765.03    585347.00    765.08
 14.54   561115.00    749.08    561062.00    749.04
 14.62   587223.00    766.30    587119.00    766.24
 14.69   582235.00    763.04    582430.00    763.17
 14.76   584345.00    764.42    584152.00    764.30
 14.83   586313.00    765.71    585073.00    764.90
 14.90   593119.00    770.14    589974.00    768.10
 14.98   605848.00    778.36    603823.00    777.06
 15.05   590285.00    768.30    587205.00    766.29
 15.12   594310.00    770.92    589301.00    767.66
 15.18   602744.00    776.37    600782.00    775.10
 15.26   605268.00    777.99    603729.00    777.00
 15.32   600884.00    775.17    599876.00    774.52
 15.39   602835.00    776.42    600301.00    774.79
 15.46   624979.00    790.56    622304.00    788.86
 15.53   615840.00    784.75    613721.00    783.40
 15.59   618472.00    786.43    616703.00    785.30
 15.66   614788.00    784.08    611990.00    782.30
 15.73   637994.00    798.75    636575.00    797.86
 15.79   629233.00    793.24    627123.00    791.91
 15.86   626812.00    791.71    622378.00    788.91
 15.93   640365.00    800.23    638958.00    799.35
 15.99   635867.00    797.41    631736.00    794.82
 16.06   646475.00    804.04    645109.00    803.19
 16.12   626413.00    791.46    625223.00    790.71
 16.18   643574.00    802.23    643826.00    802.39
 16.25   634198.00    796.37    632497.00    795.30
 16.31   623136.00    789.39    622496.00    788.98
 16.37   637450.00    798.40    637472.00    798.42
 16.44   641252.00    800.78    640767.00    800.48
 16.50   622926.00    789.26    622628.00    789.07
 16.56   610177.00    781.14    609239.00    780.54
 16.62   624832.00    790.46    624229.00    790.08
 16.68   621610.00    788.42    620327.00    787.61
 16.75   612974.00    782.93    612203.00    782.43
 16.81   595891.00    771.94    597492.00    772.98
 16.87   610632.00    781.43    610150.00    781.12
 16.93   602947.00    776.50    600705.00    775.05
 16.99   599266.00    774.12    601177.00    775.36
 17.05   587082.00    766.21    588335.00    767.03
 17.11   601338.00    775.46    601868.00    775.80
 17.17   602528.00    776.23    604323.00    777.38
 17.23   603615.00    776.93    605626.00    778.22
 17.29   589158.00    767.57    590519.00    768.45
 17.35   596270.00    772.19    595526.00    771.70
 17.40   595672.00    771.80    598240.00    773.46
 17.46   599726.00    774.42    601338.00    775.46
 17.52   604197.00    777.30    604358.00    777.40
 17.58   605962.00    778.44    607344.00    779.32
 17.63   597986.00    773.30    599722.00    774.42
 17.69   597682.00    773.10    602619.00    776.29
 17.75   609391.00    780.63    610530.00    781.36
 17.80   611196.00    781.79    613350.00    783.17
 17.86   606367.00    778.70    608169.00    779.85
 17.92   621247.00    788.19    622919.00    789.25
 17.97   615388.00    784.47    617072.00    785.54
 18.03   620082.00    787.45    620224.00    787.54
 18.08   624460.00    790.23    625757.00    791.05
 18.14   618075.00    786.18    620267.00    787.57
 18.20   642891.00    801.80    645504.00    803.43
 18.25   623127.00    789.38    625863.00    791.12
 18.31   643343.00    802.09    644940.00    803.08
 18.36   642982.00    801.86    644717.00    802.94
 18.41   641091.00    800.68    644705.00    802.94
 18.47   665470.00    815.76    666782.00    816.57
 18.52   647841.00    804.89    651647.00    807.25
 18.57   666269.00    816.25    671098.00    819.21
 18.63   665249.00    815.63    668822.00    817.82
 18.68   673073.00    820.41    675288.00    821.76
 18.74   677831.00    823.30    682591.00    826.19
 18.79   674288.00    821.15    678124.00    823.48
 18.84   684558.00    827.38    690291.00    830.84
 18.90   707392.00    841.07    712134.00    843.88
 18.95   700769.00    837.12    706216.00    840.37
 19.00   701169.00    837.36    704322.00    839.24
 19.05   703522.00    838.76    709980.00    842.60
 19.10   726732.00    852.49    732952.00    856.13
 19.15   723128.00    850.37    729318.00    854.00
 19.20   741809.00    861.28    747319.00    864.48
 19.26   735685.00    857.72    741905.00    861.34
 19.31   732872.00    856.08    739410.00    859.89
 19.36   749634.00    865.81    757653.00    870.43
 19.41   756231.00    869.62    761569.00    872.68
 19.46   751349.00    866.80    759010.00    871.21
 19.51   754183.00    868.44    761982.00    872.92
 19.56   751484.00    866.88    759990.00    871.77
 19.61   764231.00    874.20    772964.00    879.18
 19.66   767596.00    876.13    776441.00    881.16
 19.71   760279.00    871.94    769841.00    877.41
 19.76   754410.00    868.57    761501.00    872.64
 19.81   762000.00    872.93    772011.00    878.64
 19.86   759803.00    871.67    770190.00    877.60
 19.91   760295.00    871.95    768167.00    876.45
 19.96   755414.00    869.15    767323.00    875.97
 20.01   742871.00    861.90    753445.00    868.01
 20.05   738513.00    859.37    744057.00    862.59
 20.10   734998.00    857.32    742542.00    861.71
 20.15   713532.00    844.71    722017.00    849.72
 20.20   727135.00    852.72    735230.00    857.46
 20.25   712319.00    843.99    719763.00    848.39
 20.30   700237.00    836.80    707336.00    841.03
 20.35   705908.00    840.18    711936.00    843.76
 20.39   690228.00    830.80    698222.00    835.60
 20.44   677886.00    823.34    685864.00    828.17
 20.49   671350.00    819.36    677847.00    823.31
 20.54   670303.00    818.72    677233.00    822.94
 20.58   666665.00    816.50    674852.00    821.49
 20.63   645775.00    803.60    649618.00    805.99
 20.68   658393.00    811.41    666069.00    816.13
 20.73   659705.00    812.22    663623.00    814.63
 20.77   631138.00    794.44    636161.00    797.60
 20.82   651670.00    807.26    655748.00    809.78
 20.87   640039.00    800.02    644892.00    803.05
 20.91   629497.00    793.41    632528.00    795.32
 20.96   645312.00    803.31    649451.00    805.89
 21.00   629831.00    793.62    632559.00    795.34
 21.05   625421.00    790.84    630224.00    793.87
 21.09   634956.00    796.84    639314.00    799.57
 21.14   619792.00    787.27    622813.00    789.19
 21.19   639021.00    799.39    641176.00    800.73
 21.23   628570.00    792.82    630288.00    793.91
 21.28   621659.00    788.45    626205.00    791.33
 21.32   630205.00    793.85    631925.00    794.94
 21.37   627107.00    791.90    630855.00    794.26
 21.41   635449.00    797.15    639009.00    799.38
 21.46   633580.00    795.98    635868.00    797.41
 21.50   636887.00    798.05    639344.00    799.59
 21.55   630966.00    794.33    632698.00    795.42
 21.59   621660.00    788.45    624623.00    790.33
 21.64   649460.00    805.89    652798.00    807.96
 21.68   631064.00    794.40    632525.00    795.31
 21.73   652088.00    807.52    654216.00    808.84
 21.77   626292.00    791.39    629760.00    793.57
 21.81   644954.00    803.09    646840.00    804.26
 21.86   631642.00    794.76    633232.00    795.76
 21.90   637624.00    798.51    639693.00    799.81
 21.95   656117.00    810.01    658467.00    811.46
 21.99   635095.00    796.93    637929.00    798.70
 22.03   636085.00    797.55    636696.00    797.93
 22.08   654334.00    808.91    657579.00    810.91
 22.12   638657.00    799.16    640811.00    800.51
 22.16   644551.00    802.84    646632.00    804.13
 22.21   652909.00    808.03    654306.00    808.89
 22.25   638556.00    799.10    641041.00    800.65
 22.29   639135.00    799.46    638789.00    799.24
 22.33   651310.00    807.04    654148.00    808.79
 22.38   641635.00    801.02    641988.00    801.24
 22.42   636591.00    797.87    639158.00    799.47
 22.46   645411.00    803.37    648400.00    805.23
 22.51   650335.00    806.43    652754.00    807.93
 22.55   636711.00    797.94    638564.00    799.10
 22.59   639347.00    799.59    639381.00    799.61
 22.63   629682.00    793.53    628940.00    793.06
 22.67   642164.00    801.35    643846.00    802.40
 22.72   641935.00    801.21    642463.00    801.54
 22.76   627326.00    792.04    625193.00    790.69
 22.80   633649.00    796.02    635182.00    796.98
 22.84   632462.00    795.27    635532.00    797.20
 22.88   630935.00    794.31    632369.00    795.22
 22.92   626071.00    791.25    626210.00    791.33
 22.97   648340.00    805.20    649571.00    805.96
 23.01   621824.00    788.56    622814.00    789.19
 23.05   625785.00    791.07    629252.00    793.25
 23.09   625727.00    791.03    627265.00    792.00
 23.13   633231.00    795.76    634523.00    796.57
 23.17   619532.00    787.10    621924.00    788.62
 23.21   628281.00    792.64    630533.00    794.06
 23.25   627200.00    791.96    628099.00    792.53
 23.29   630893.00    794.29    631908.00    794.93
 23.33   621146.00    788.13    621604.00    788.42
 23.37   611534.00    782.01    614865.00    784.13
 23.41   633467.00    795.91    637429.00    798.39
 23.46   632951.00    795.58    635446.00    797.15
 23.49   625471.00    790.87    625510.00    790.89
 23.53   628270.00    792.63    627380.00    792.07
 23.57   617576.00    785.86    622453.00    788.96
 23.62   631425.00    794.62    631777.00    794.84
 23.65   623552.00    789.65    625530.00    790.90
 23.70   632315.00    795.18    633973.00    796.22
 23.74   634126.00    796.32    636047.00    797.53
 23.77   620162.00    787.50    622861.00    789.22
 23.81   631836.00    794.88    632642.00    795.39
 23.85   631982.00    794.97    633625.00    796.01
 23.89   632425.00    795.25    634913.00    796.81
 23.93   633790.00    796.11    637070.00    798.17
 23.97   643444.00    802.15    645575.00    803.48
 24.01   639846.00    799.90    641863.00    801.16
 24.05   646118.00    803.81    648780.00    805.47
 24.09   648275.00    805.16    648079.00    805.03
 24.13   656693.00    810.37    660693.00    812.83
 24.17   657131.00    810.64    657955.00    811.14
 24.20   654216.00    808.84    657313.00    810.75
 24.24   666225.00    816.23    667022.00    816.71
 24.28   668470.00    817.60    670759.00    819.00
 24.32   656547.00    810.28    659087.00    811.84
 24.36   671544.00    819.48    674619.00    821.35
 24.40   680587.00    824.98    683404.00    826.68
 24.44   683328.00    826.64    685519.00    827.96
 24.47   699488.00    836.35    701452.00    837.53
 24.51   672724.00    820.20    675650.00    821.98
 24.55   686764.00    828.71    689603.00    830.42
 24.59   707502.00    841.13    710716.00    843.04
 24.63   710545.00    842.94    714725.00    845.41
 24.66   702361.00    838.07    705397.00    839.88
 24.70   714711.00    845.41    716554.00    846.50
 24.74   697733.00    835.30    698803.00    835.94
 24.78   727898.00    853.17    731420.00    855.23
 24.81   720322.00    848.72    720958.00    849.09
 24.85   717151.00    846.85    720174.00    848.63
 24.89   713755.00    844.84    717943.00    847.32
 24.93   716172.00    846.27    717909.00    847.30
 24.97   740327.00    860.42    742027.00    861.41
 25.01   717958.00    847.32    719223.00    848.07
 25.04   714621.00    845.35    716075.00    846.21
 25.08   722963.00    850.27    727187.00    852.75
 25.12   731034.00    855.01    734322.00    856.93
 25.15   705090.00    839.70    706245.00    840.38
 25.19   721711.00    849.54    723146.00    850.38
 25.23   728547.00    853.55    730100.00    854.46
 25.26   703214.00    838.58    702769.00    838.31
 25.30   709859.00    842.53    713062.00    844.43
 25.34   714611.00    845.35    714667.00    845.38
 25.37   717221.00    846.89    718001.00    847.35
 25.41   690875.00    831.19    692345.00    832.07
 25.45   707419.00    841.08    708800.00    841.90
 25.48   699378.00    836.29    698924.00    836.02
 25.52   688985.00    830.05    689907.00    830.61
 25.56   689403.00    830.30    691394.00    831.50
 25.59   671288.00    819.32    671536.00    819.47
 25.63   695746.00    834.11    696541.00    834.59
 25.66   680427.00    824.88    682712.00    826.26
 25.70   663734.00    814.70    664660.00    815.27
 25.74   679650.00    824.41    682010.00    825.84
 25.77   681692.00    825.65    682210.00    825.96
 25.81   649070.00    805.65    650094.00    806.28
 25.85   671411.00    819.40    673695.00    820.79
 25.88   644980.00    803.11    648984.00    805.60
 25.92   667752.00    817.16    670660.00    818.94
 25.95   645802.00    803.62    646729.00    804.19
 25.99   652029.00    807.48    654756.00    809.17
 26.02   658757.00    811.64    660767.00    812.88
 26.06   639208.00    799.50    641501.00    800.94
 26.09   650749.00    806.69    652548.00    807.80
 26.13   632464.00    795.28    634961.00    796.84
 26.17   655672.00    809.74    657396.00    810.80
 26.20   631354.00    794.58    633180.00    795.73
 26.24   644626.00    802.89    646549.00    804.08
 26.27   628240.00    792.62    630672.00    794.15
 26.31   648472.00    805.28    649891.00    806.16
 26.34   620184.00    787.52    622643.00    789.08
 26.38   649920.00    806.18    650610.00    806.60
 26.41   620029.00    787.42    623672.00    789.73
 26.45   645564.00    803.47    651344.00    807.06
 26.48   622640.00    789.08    626588.00    791.57
 26.52   644156.00    802.59    645871.00    803.66
 26.55   620115.00    787.47    622475.00    788.97
 26.59   636258.00    797.66    638078.00    798.80
 26.62   620081.00    787.45    621708.00    788.48
 26.66   641896.00    801.18    644652.00    802.90
 26.69   620283.00    787.58    623203.00    789.43
 26.73   645809.00    803.62    647515.00    804.68
 26.76   614059.00    783.62    618547.00    786.48
 26.80   643878.00    802.42    647509.00    804.68
 26.83   621202.00    788.16    622502.00    788.99
 26.87   641001.00    800.63    644134.00    802.58
 26.90   619658.00    787.18    623288.00    789.49
 26.94   644673.00    802.92    648459.00    805.27
 26.97   623946.00    789.90    625754.00    791.05
 27.00   645531.00    803.45    647402.00    804.61
 27.04   619713.00    787.22    620754.00    787.88
 27.07   641456.00    800.91    645056.00    803.15
 27.11   625788.00    791.07    630197.00    793.85
 27.14   647973.00    804.97    651583.00    807.21
 27.18   632731.00    795.44    636084.00    797.55
 27.21   647797.00    804.86    650011.00    806.23
 27.25   633720.00    796.07    636621.00    797.89
 27.28   642276.00    801.42    644042.00    802.52
 27.32   641570.00    800.98    643636.00    802.27
 27.35   655480.00    809.62    656867.00    810.47
 27.39   638448.00    799.03    641720.00    801.07
 27.42   661278.00    813.19    664921.00    815.43
 27.46   639830.00    799.89    645088.00    803.17
 27.49   654226.00    808.84    657536.00    810.89
 27.53   650084.00    806.28    654016.00    808.71
 27.56   656944.00    810.52    661920.00    813.58
 27.60   670534.00    818.86    673083.00    820.42
 27.63   644381.00    802.73    648967.00    805.58
 27.67   673937.00    820.94    676665.00    822.60
 27.70   668894.00    817.86    673199.00    820.49
 27.74   672271.00    819.92    675872.00    822.11
 27.77   655740.00    809.78    659298.00    811.97
 27.81   681555.00    825.56    686587.00    828.61
 27.84   662299.00    813.82    666492.00    816.39
 27.88   687134.00    828.94    689843.00    830.57
 27.91   667547.00    817.04    672159.00    819.85
 27.95   685873.00    828.17    690125.00    830.74
 27.98   674590.00    821.33    678554.00    823.74
 28.02   688388.00    829.69    694010.00    833.07
 28.05   666460.00    816.37    670187.00    818.65
 28.09   693558.00    832.80    698922.00    836.02
 28.12   668823.00    817.82    676201.00    822.31
 28.16   696198.00    834.38    701576.00    837.60
 28.19   670348.00    818.75    673333.00    820.57
 28.22   702232.00    837.99    707487.00    841.12
 28.26   659841.00    812.31    666500.00    816.39
 28.30   697578.00    835.21    703490.00    838.74
 28.33   671891.00    819.69    678562.00    823.75
 28.36   686895.00    828.79    689924.00    830.62
 28.40   675993.00    822.19    680891.00    825.16
 28.43   697678.00    835.27    701437.00    837.52
 28.47   671900.00    819.70    678291.00    823.58
 28.51   694083.00    833.12    697437.00    835.13
 28.54   673621.00    820.74    679669.00    824.42
 28.58   687542.00    829.18    694258.00    833.22
